#K-Path(1/A) Energy-Level(eV)
# NKPTS & NBANDS: 120  56
# Band-Index    1
   0.00000    -14.316019
   0.01135    -14.315744
   0.02269    -14.314914
   0.03404    -14.313531
   0.04539    -14.311601
   0.05674    -14.309130
   0.06808    -14.306128
   0.07943    -14.302607
   0.09078    -14.298581
   0.10213    -14.294072
   0.11347    -14.289091
   0.12482    -14.283678
   0.13617    -14.277870
   0.14752    -14.271684
   0.15886    -14.265167
   0.17021    -14.258369
   0.18156    -14.251347
   0.19291    -14.244172
   0.20425    -14.236911
   0.21560    -14.229653
   0.22695    -14.222503
   0.23830    -14.215558
   0.24964    -14.208949
   0.26099    -14.202811
   0.27234    -14.197282
   0.28369    -14.192504
   0.29503    -14.188617
   0.30638    -14.185742
   0.31773    -14.183976
   0.32908    -14.183379
   0.32908    -14.183379
   0.35954    -14.180937
   0.39001    -14.173619
   0.42047    -14.161445
   0.45094    -14.144454
   0.48140    -14.122699
   0.51187    -14.096240
   0.54233    -14.065168
   0.57280    -14.029580
   0.60326    -13.989596
   0.63373    -13.945365
   0.66419    -13.897052
   0.69466    -13.844853
   0.72513    -13.788990
   0.75559    -13.729732
   0.78606    -13.667381
   0.81652    -13.602275
   0.84699    -13.534815
   0.87745    -13.465448
   0.90792    -13.394697
   0.93838    -13.323180
   0.96885    -13.251600
   0.99931    -13.180797
   1.02978    -13.111795
   1.06024    -13.045892
   1.09071    -12.984773
   1.12117    -12.930754
   1.15164    -12.887063
   1.18210    -12.857907
   1.21257    -12.847544
   1.21257    -12.847544
   1.24373    -12.858301
   1.27489    -12.888798
   1.30605    -12.935025
   1.33722    -12.992859
   1.36838    -13.058968
   1.39954    -13.130834
   1.43070    -13.206534
   1.46186    -13.284548
   1.49302    -13.363643
   1.52419    -13.442821
   1.55535    -13.521224
   1.58651    -13.598137
   1.61767    -13.672953
   1.64883    -13.745151
   1.67999    -13.814273
   1.71116    -13.879923
   1.74232    -13.941779
   1.77348    -13.999569
   1.80464    -14.053033
   1.83580    -14.101960
   1.86696    -14.146160
   1.89813    -14.185494
   1.92929    -14.219821
   1.96045    -14.249043
   1.99161    -14.273068
   2.02277    -14.291829
   2.05393    -14.305265
   2.08510    -14.313334
   2.11626    -14.316019
   2.11626    -14.316019
   2.14672    -14.313427
   2.17719    -14.305633
   2.20765    -14.292650
   2.23812    -14.274509
   2.26858    -14.251260
   2.29905    -14.222950
   2.32951    -14.189649
   2.35998    -14.151430
   2.39044    -14.108395
   2.42091    -14.060650
   2.45137    -14.008334
   2.48184    -13.951607
   2.51230    -13.890675
   2.54277    -13.825745
   2.57324    -13.757075
   2.60370    -13.684979
   2.63417    -13.609843
   2.66463    -13.532129
   2.69510    -13.452398
   2.72556    -13.371348
   2.75603    -13.289877
   2.78649    -13.209143
   2.81696    -13.130658
   2.84742    -13.056421
   2.87789    -12.989009
   2.90835    -12.931555
   2.93882    -12.887467
   2.96928    -12.859735
   2.99975    -12.850280
 
# Band-Index    2
   2.99975    -12.850280
   2.96928    -12.859735
   2.93882    -12.887467
   2.90835    -12.931555
   2.87789    -12.989009
   2.84742    -13.056421
   2.81696    -13.130658
   2.78649    -13.209143
   2.75603    -13.289877
   2.72556    -13.371348
   2.69510    -13.452398
   2.66463    -13.532129
   2.63417    -13.609843
   2.60370    -13.684979
   2.57324    -13.757075
   2.54277    -13.825745
   2.51230    -13.890675
   2.48184    -13.951607
   2.45137    -14.008334
   2.42091    -14.060650
   2.39044    -14.108395
   2.35998    -14.151430
   2.32951    -14.189649
   2.29905    -14.222950
   2.26858    -14.251260
   2.23812    -14.274509
   2.20765    -14.292650
   2.17719    -14.305633
   2.14672    -14.313427
   2.11626    -14.316019
   2.11626    -14.316019
   2.08510    -14.313334
   2.05393    -14.305265
   2.02277    -14.291829
   1.99161    -14.273068
   1.96045    -14.249043
   1.92929    -14.219821
   1.89813    -14.185494
   1.86696    -14.146160
   1.83580    -14.101960
   1.80464    -14.053033
   1.77348    -13.999569
   1.74232    -13.941779
   1.71116    -13.879923
   1.67999    -13.814273
   1.64883    -13.745151
   1.61767    -13.672953
   1.58651    -13.598137
   1.55535    -13.521224
   1.52419    -13.442821
   1.49302    -13.363643
   1.46186    -13.284548
   1.43070    -13.206534
   1.39954    -13.130834
   1.36838    -13.058968
   1.33722    -12.992859
   1.30605    -12.935025
   1.27489    -12.888798
   1.24373    -12.858301
   1.21257    -12.847544
   1.21257    -12.847544
   1.18210    -12.857907
   1.15164    -12.887063
   1.12117    -12.930754
   1.09071    -12.984773
   1.06024    -13.045892
   1.02978    -13.111795
   0.99931    -13.180797
   0.96885    -13.251600
   0.93838    -13.323180
   0.90792    -13.394697
   0.87745    -13.465448
   0.84699    -13.534815
   0.81652    -13.602275
   0.78606    -13.667381
   0.75559    -13.729732
   0.72513    -13.788990
   0.69466    -13.844853
   0.66419    -13.897052
   0.63373    -13.945365
   0.60326    -13.989596
   0.57280    -14.029580
   0.54233    -14.065168
   0.51187    -14.096240
   0.48140    -14.122699
   0.45094    -14.144454
   0.42047    -14.161445
   0.39001    -14.173619
   0.35954    -14.180937
   0.32908    -14.183379
   0.32908    -14.183379
   0.31773    -14.183976
   0.30638    -14.185742
   0.29503    -14.188617
   0.28369    -14.192504
   0.27234    -14.197282
   0.26099    -14.202811
   0.24964    -14.208949
   0.23830    -14.215558
   0.22695    -14.222503
   0.21560    -14.229653
   0.20425    -14.236911
   0.19291    -14.244172
   0.18156    -14.251347
   0.17021    -14.258369
   0.15886    -14.265167
   0.14752    -14.271684
   0.13617    -14.277870
   0.12482    -14.283678
   0.11347    -14.289091
   0.10213    -14.294072
   0.09078    -14.298581
   0.07943    -14.302607
   0.06808    -14.306128
   0.05674    -14.309130
   0.04539    -14.311601
   0.03404    -14.313531
   0.02269    -14.314914
   0.01135    -14.315744
   0.00000    -14.316019
 
# Band-Index    3
   0.00000    -13.085566
   0.01135    -13.101688
   0.02269    -13.130449
   0.03404    -13.161339
   0.04539    -13.192608
   0.05674    -13.223782
   0.06808    -13.254662
   0.07943    -13.285140
   0.09078    -13.315136
   0.10213    -13.344588
   0.11347    -13.373438
   0.12482    -13.401633
   0.13617    -13.429116
   0.14752    -13.455829
   0.15886    -13.481709
   0.17021    -13.506697
   0.18156    -13.530712
   0.19291    -13.553682
   0.20425    -13.575511
   0.21560    -13.596105
   0.22695    -13.615357
   0.23830    -13.633143
   0.24964    -13.649334
   0.26099    -13.663791
   0.27234    -13.676367
   0.28369    -13.686914
   0.29503    -13.695295
   0.30638    -13.701384
   0.31773    -13.705087
   0.32908    -13.706327
   0.32908    -13.706327
   0.35954    -13.703874
   0.39001    -13.696531
   0.42047    -13.684316
   0.45094    -13.667262
   0.48140    -13.645413
   0.51187    -13.618832
   0.54233    -13.587587
   0.57280    -13.551768
   0.60326    -13.511484
   0.63373    -13.466864
   0.66419    -13.418060
   0.69466    -13.365256
   0.72513    -13.308665
   0.75559    -13.248546
   0.78606    -13.185202
   0.81652    -13.119005
   0.84699    -13.050423
   0.87745    -12.980038
   0.90792    -12.908596
   0.93838    -12.837090
   0.96885    -12.766846
   0.99931    -12.699675
   1.02978    -12.638090
   1.06024    -12.585460
   1.09071    -12.545637
   1.12117    -12.521299
   1.15164    -12.511188
   1.18210    -12.509653
   1.21257    -12.510114
   1.21257    -12.510114
   1.24373    -12.509508
   1.27489    -12.509496
   1.30605    -12.514010
   1.33722    -12.526450
   1.36838    -12.548219
   1.39954    -12.578664
   1.43070    -12.615923
   1.46186    -12.657835
   1.49302    -12.702446
   1.52419    -12.748165
   1.55535    -12.793731
   1.58651    -12.838187
   1.61767    -12.880778
   1.64883    -12.920908
   1.67999    -12.958111
   1.71116    -12.992019
   1.74232    -13.022341
   1.77348    -13.048852
   1.80464    -13.071381
   1.83580    -13.089794
   1.86696    -13.104006
   1.89813    -13.113972
   1.92929    -13.119686
   1.96045    -13.121196
   1.99161    -13.118617
   2.02277    -13.112205
   2.05393    -13.102580
   2.08510    -13.091607
   2.11626    -13.085566
   2.11626    -13.085566
   2.14672    -13.085696
   2.17719    -13.085401
   2.20765    -13.083480
   2.23812    -13.079127
   2.26858    -13.071968
   2.29905    -13.061873
   2.32951    -13.048856
   2.35998    -13.033010
   2.39044    -13.014478
   2.42091    -12.993446
   2.45137    -12.970134
   2.48184    -12.944789
   2.51230    -12.917692
   2.54277    -12.889141
   2.57324    -12.859446
   2.60370    -12.828942
   2.63417    -12.797971
   2.66463    -12.766868
   2.69510    -12.735964
   2.72556    -12.705553
   2.75603    -12.675872
   2.78649    -12.647079
   2.81696    -12.619198
   2.84742    -12.592136
   2.87789    -12.565705
   2.90835    -12.540008
   2.93882    -12.516252
   2.96928    -12.497976
   2.99975    -12.490818
 
# Band-Index    4
   2.99975    -12.490818
   2.96928    -12.497976
   2.93882    -12.516252
   2.90835    -12.540008
   2.87789    -12.565705
   2.84742    -12.592136
   2.81696    -12.619198
   2.78649    -12.647079
   2.75603    -12.675872
   2.72556    -12.705553
   2.69510    -12.735964
   2.66463    -12.766868
   2.63417    -12.797971
   2.60370    -12.828942
   2.57324    -12.859446
   2.54277    -12.889141
   2.51230    -12.917692
   2.48184    -12.944789
   2.45137    -12.970134
   2.42091    -12.993446
   2.39044    -13.014478
   2.35998    -13.033010
   2.32951    -13.048856
   2.29905    -13.061873
   2.26858    -13.071968
   2.23812    -13.079127
   2.20765    -13.083480
   2.17719    -13.085401
   2.14672    -13.085696
   2.11626    -13.085566
   2.11626    -13.085566
   2.08510    -13.091607
   2.05393    -13.102580
   2.02277    -13.112205
   1.99161    -13.118617
   1.96045    -13.121196
   1.92929    -13.119686
   1.89813    -13.113972
   1.86696    -13.104006
   1.83580    -13.089794
   1.80464    -13.071381
   1.77348    -13.048852
   1.74232    -13.022341
   1.71116    -12.992019
   1.67999    -12.958111
   1.64883    -12.920908
   1.61767    -12.880778
   1.58651    -12.838187
   1.55535    -12.793731
   1.52419    -12.748165
   1.49302    -12.702446
   1.46186    -12.657835
   1.43070    -12.615923
   1.39954    -12.578664
   1.36838    -12.548219
   1.33722    -12.526450
   1.30605    -12.514010
   1.27489    -12.509496
   1.24373    -12.509508
   1.21257    -12.510114
   1.21257    -12.510114
   1.18210    -12.509653
   1.15164    -12.511188
   1.12117    -12.521299
   1.09071    -12.545637
   1.06024    -12.585460
   1.02978    -12.638090
   0.99931    -12.699675
   0.96885    -12.766846
   0.93838    -12.837090
   0.90792    -12.908596
   0.87745    -12.980038
   0.84699    -13.050423
   0.81652    -13.119005
   0.78606    -13.185202
   0.75559    -13.248546
   0.72513    -13.308665
   0.69466    -13.365256
   0.66419    -13.418060
   0.63373    -13.466864
   0.60326    -13.511484
   0.57280    -13.551768
   0.54233    -13.587587
   0.51187    -13.618832
   0.48140    -13.645413
   0.45094    -13.667262
   0.42047    -13.684316
   0.39001    -13.696531
   0.35954    -13.703874
   0.32908    -13.706327
   0.32908    -13.706327
   0.31773    -13.705087
   0.30638    -13.701384
   0.29503    -13.695295
   0.28369    -13.686914
   0.27234    -13.676367
   0.26099    -13.663791
   0.24964    -13.649334
   0.23830    -13.633143
   0.22695    -13.615357
   0.21560    -13.596105
   0.20425    -13.575511
   0.19291    -13.553682
   0.18156    -13.530712
   0.17021    -13.506697
   0.15886    -13.481709
   0.14752    -13.455829
   0.13617    -13.429116
   0.12482    -13.401633
   0.11347    -13.373438
   0.10213    -13.344588
   0.09078    -13.315136
   0.07943    -13.285140
   0.06808    -13.254662
   0.05674    -13.223782
   0.04539    -13.192608
   0.03404    -13.161339
   0.02269    -13.130449
   0.01135    -13.101688
   0.00000    -13.085566
 
# Band-Index    5
   0.00000    -13.034197
   0.01135    -13.017853
   0.02269    -12.988427
   0.03404    -12.956432
   0.04539    -12.923643
   0.05674    -12.890545
   0.06808    -12.857359
   0.07943    -12.824222
   0.09078    -12.791238
   0.10213    -12.758513
   0.11347    -12.726144
   0.12482    -12.694229
   0.13617    -12.662873
   0.14752    -12.632189
   0.15886    -12.602296
   0.17021    -12.573320
   0.18156    -12.545392
   0.19291    -12.518652
   0.20425    -12.493246
   0.21560    -12.469326
   0.22695    -12.447049
   0.23830    -12.426569
   0.24964    -12.408047
   0.26099    -12.391629
   0.27234    -12.377459
   0.28369    -12.365666
   0.29503    -12.356364
   0.30638    -12.349651
   0.31773    -12.345594
   0.32908    -12.344237
   0.32908    -12.344237
   0.35954    -12.343370
   0.39001    -12.340791
   0.42047    -12.336547
   0.45094    -12.330717
   0.48140    -12.323413
   0.51187    -12.314778
   0.54233    -12.304987
   0.57280    -12.294252
   0.60326    -12.282817
   0.63373    -12.270953
   0.66419    -12.258978
   0.69466    -12.247225
   0.72513    -12.236056
   0.75559    -12.225854
   0.78606    -12.217007
   0.81652    -12.209906
   0.84699    -12.204919
   0.87745    -12.202362
   0.90792    -12.202446
   0.93838    -12.205230
   0.96885    -12.210502
   0.99931    -12.217644
   1.02978    -12.225414
   1.06024    -12.231772
   1.09071    -12.234083
   1.12117    -12.230589
   1.15164    -12.222666
   1.18210    -12.214811
   1.21257    -12.211589
   1.21257    -12.211589
   1.24373    -12.214054
   1.27489    -12.220850
   1.30605    -12.230454
   1.33722    -12.241290
   1.36838    -12.252582
   1.39954    -12.264666
   1.43070    -12.278545
   1.46186    -12.295263
   1.49302    -12.315566
   1.52419    -12.339816
   1.55535    -12.368072
   1.58651    -12.400160
   1.61767    -12.435737
   1.64883    -12.474341
   1.67999    -12.515450
   1.71116    -12.558499
   1.74232    -12.602902
   1.77348    -12.648081
   1.80464    -12.693459
   1.83580    -12.738484
   1.86696    -12.782631
   1.89813    -12.825409
   1.92929    -12.866350
   1.96045    -12.905003
   1.99161    -12.940904
   2.02277    -12.973516
   2.05393    -13.002007
   2.08510    -13.024355
   2.11626    -13.034197
   2.11626    -13.034197
   2.14672    -13.030340
   2.17719    -13.019472
   2.20765    -13.002853
   2.23812    -12.981398
   2.26858    -12.955650
   2.29905    -12.925935
   2.32951    -12.892506
   2.35998    -12.855590
   2.39044    -12.815412
   2.42091    -12.772233
   2.45137    -12.726348
   2.48184    -12.678113
   2.51230    -12.627959
   2.54277    -12.576396
   2.57324    -12.524048
   2.60370    -12.471662
   2.63417    -12.420152
   2.66463    -12.370605
   2.69510    -12.324297
   2.72556    -12.282684
   2.75603    -12.247370
   2.78649    -12.219988
   2.81696    -12.201969
   2.84742    -12.194204
   2.87789    -12.196590
   2.90835    -12.207555
   2.93882    -12.223474
   2.96928    -12.238248
   2.99975    -12.244442
 
# Band-Index    6
   2.99975    -12.244442
   2.96928    -12.238248
   2.93882    -12.223474
   2.90835    -12.207555
   2.87789    -12.196590
   2.84742    -12.194204
   2.81696    -12.201969
   2.78649    -12.219988
   2.75603    -12.247370
   2.72556    -12.282684
   2.69510    -12.324297
   2.66463    -12.370605
   2.63417    -12.420152
   2.60370    -12.471662
   2.57324    -12.524048
   2.54277    -12.576396
   2.51230    -12.627959
   2.48184    -12.678113
   2.45137    -12.726348
   2.42091    -12.772233
   2.39044    -12.815412
   2.35998    -12.855590
   2.32951    -12.892506
   2.29905    -12.925935
   2.26858    -12.955650
   2.23812    -12.981398
   2.20765    -13.002853
   2.17719    -13.019472
   2.14672    -13.030340
   2.11626    -13.034197
   2.11626    -13.034197
   2.08510    -13.024355
   2.05393    -13.002007
   2.02277    -12.973516
   1.99161    -12.940904
   1.96045    -12.905003
   1.92929    -12.866350
   1.89813    -12.825409
   1.86696    -12.782631
   1.83580    -12.738484
   1.80464    -12.693459
   1.77348    -12.648081
   1.74232    -12.602902
   1.71116    -12.558499
   1.67999    -12.515450
   1.64883    -12.474341
   1.61767    -12.435737
   1.58651    -12.400160
   1.55535    -12.368072
   1.52419    -12.339816
   1.49302    -12.315566
   1.46186    -12.295263
   1.43070    -12.278545
   1.39954    -12.264666
   1.36838    -12.252582
   1.33722    -12.241290
   1.30605    -12.230454
   1.27489    -12.220850
   1.24373    -12.214054
   1.21257    -12.211589
   1.21257    -12.211589
   1.18210    -12.214811
   1.15164    -12.222666
   1.12117    -12.230589
   1.09071    -12.234083
   1.06024    -12.231772
   1.02978    -12.225414
   0.99931    -12.217644
   0.96885    -12.210502
   0.93838    -12.205230
   0.90792    -12.202446
   0.87745    -12.202362
   0.84699    -12.204919
   0.81652    -12.209906
   0.78606    -12.217007
   0.75559    -12.225854
   0.72513    -12.236056
   0.69466    -12.247225
   0.66419    -12.258978
   0.63373    -12.270953
   0.60326    -12.282817
   0.57280    -12.294252
   0.54233    -12.304987
   0.51187    -12.314778
   0.48140    -12.323413
   0.45094    -12.330717
   0.42047    -12.336547
   0.39001    -12.340791
   0.35954    -12.343370
   0.32908    -12.344237
   0.32908    -12.344237
   0.31773    -12.345594
   0.30638    -12.349651
   0.29503    -12.356364
   0.28369    -12.365666
   0.27234    -12.377459
   0.26099    -12.391629
   0.24964    -12.408047
   0.23830    -12.426569
   0.22695    -12.447049
   0.21560    -12.469326
   0.20425    -12.493246
   0.19291    -12.518652
   0.18156    -12.545392
   0.17021    -12.573320
   0.15886    -12.602296
   0.14752    -12.632189
   0.13617    -12.662873
   0.12482    -12.694229
   0.11347    -12.726144
   0.10213    -12.758513
   0.09078    -12.791238
   0.07943    -12.824222
   0.06808    -12.857359
   0.05674    -12.890545
   0.04539    -12.923643
   0.03404    -12.956432
   0.02269    -12.988427
   0.01135    -13.017853
   0.00000    -13.034197
 
# Band-Index    7
   0.00000     -9.725215
   0.01135     -9.727721
   0.02269     -9.735135
   0.03404     -9.747159
   0.04539     -9.763351
   0.05674     -9.783182
   0.06808     -9.806088
   0.07943     -9.831519
   0.09078     -9.858947
   0.10213     -9.887909
   0.11347     -9.917972
   0.12482     -9.948749
   0.13617     -9.979891
   0.14752    -10.011086
   0.15886    -10.042043
   0.17021    -10.072495
   0.18156    -10.102186
   0.19291    -10.130875
   0.20425    -10.158328
   0.21560    -10.184319
   0.22695    -10.208634
   0.23830    -10.231060
   0.24964    -10.251400
   0.26099    -10.269463
   0.27234    -10.285076
   0.28369    -10.298080
   0.29503    -10.308343
   0.30638    -10.315755
   0.31773    -10.320233
   0.32908    -10.321733
   0.32908    -10.321733
   0.35954    -10.320804
   0.39001    -10.318034
   0.42047    -10.313475
   0.45094    -10.307220
   0.48140    -10.299391
   0.51187    -10.290153
   0.54233    -10.279697
   0.57280    -10.268258
   0.60326    -10.256107
   0.63373    -10.243550
   0.66419    -10.230938
   0.69466    -10.218662
   0.72513    -10.207164
   0.75559    -10.196961
   0.78606    -10.188677
   0.81652    -10.183128
   0.84699    -10.181495
   0.87745    -10.185622
   0.90792    -10.198512
   0.93838    -10.224623
   0.96885    -10.268246
   0.99931    -10.329062
   1.02978    -10.400713
   1.06024    -10.475112
   1.09071    -10.545511
   1.12117    -10.606591
   1.15164    -10.653958
   1.18210    -10.684025
   1.21257    -10.694342
   1.21257    -10.694342
   1.24373    -10.686015
   1.27489    -10.661557
   1.30605    -10.622419
   1.33722    -10.570774
   1.36838    -10.509257
   1.39954    -10.440798
   1.43070    -10.368589
   1.46186    -10.296097
   1.49302    -10.226968
   1.52419    -10.164527
   1.55535    -10.110839
