#K-Path(1/A) Energy-Level(eV)
# NKPTS & NBANDS: 100  56
# Band-Index    1
   0.00000     -9.304115
   0.09148     -9.270401
   0.18296     -9.169469
   0.27443     -9.002224
   0.36591     -8.770216
   0.45739     -8.475879
   0.54887     -8.122937
   0.64035     -7.716952
   0.73183     -7.266631
   0.82330     -6.785587
   0.91478     -6.296059
   1.00626     -5.832018
   1.09774     -5.437834
   1.18922     -5.150411
   1.28070     -4.972527
   1.37217     -4.883088
   1.46365     -4.843110
   1.55513     -4.830247
   1.64661     -4.827301
   1.73809     -4.828353
   1.73809     -4.828353
   1.78383     -4.823281
   1.82957     -4.810345
   1.87530     -4.790942
   1.92104     -4.764064
   1.96678     -4.730097
   2.01252     -4.689556
   2.05826     -4.643082
   2.10400     -4.591462
   2.14974     -4.535647
   2.19548     -4.476756
   2.24122     -4.416112
   2.28696     -4.355247
   2.33270     -4.295919
   2.37844     -4.240107
   2.42417     -4.190008
   2.46991     -4.147825
   2.51565     -4.115749
   2.56139     -4.095651
   2.60713     -4.088799
   2.60713     -4.088799
   2.63947     -4.089728
   2.67182     -4.092433
   2.70416     -4.096791
   2.73650     -4.102687
   2.76884     -4.110010
   2.80119     -4.118059
   2.83353     -4.127993
   2.86587     -4.139580
   2.89821     -4.151389
   2.93056     -4.164136
   2.96290     -4.177494
   2.99524     -4.190723
   3.02758     -4.203539
   3.05993     -4.215446
   3.09227     -4.225955
   3.12461     -4.234620
   3.15695     -4.241076
   3.18930     -4.244987
   3.22164     -4.246333
   3.22164     -4.246333
   3.31866     -4.106697
   3.41569     -3.997637
   3.51272     -3.972549
   3.60975     -4.045003
   3.70677     -4.224534
   3.80380     -4.519669
   3.90083     -4.923091
   3.99786     -5.411799
   4.09488     -5.948249
   4.19191     -6.497486
   4.28894     -7.031877
   4.38597     -7.531509
   4.48299     -7.982709
   4.58002     -8.376064
   4.67705     -8.705053
   4.77408     -8.964991
   4.87110     -9.152734
   4.96813     -9.266190
   5.06516     -9.304115
   5.06516     -9.304115
   5.14438     -9.278832
   5.22360     -9.203083
   5.30282     -9.077497
   5.38205     -8.902985
   5.46127     -8.681079
   5.54049     -8.413888
   5.61971     -8.104638
   5.69894     -7.757602
   5.77816     -7.379373
   5.85738     -6.979465
   5.93660     -6.572158
   6.01583     -6.177618
   6.09505     -5.821544
   6.17427     -5.528723
   6.25350     -5.311985
   6.33272     -5.167060
   6.41194     -5.078449
   6.49116     -5.028405
   6.57039     -5.014082
 
# Band-Index    2
   6.57039     -3.003125
   6.49116     -2.999747
   6.41194     -2.990015
   6.33272     -2.973943
   6.25350     -2.952451
   6.17427     -2.926713
   6.09505     -2.901227
   6.01583     -3.073809
   5.93660     -3.170033
   5.85738     -3.211360
   5.77816     -3.215862
   5.69894     -3.196795
   5.61971     -3.163677
   5.54049     -3.122607
   5.46127     -3.080575
   5.38205     -3.043219
   5.30282     -3.009492
   5.22360     -2.983287
   5.14438     -2.966344
   5.06516     -2.960934
   5.06516     -2.960934
   4.96813     -2.969826
   4.87110     -2.995837
   4.77408     -3.039744
   4.67705     -3.094663
   4.58002     -3.157632
   4.48299     -3.226628
   4.38597     -3.294920
   4.28894     -3.359452
   4.19191     -3.414516
   4.09488     -3.455661
   3.99786     -3.478532
   3.90083     -3.480100
   3.80380     -3.456936
   3.70677     -3.445957
   3.60975     -3.585268
   3.51272     -3.722864
   3.41569     -3.838760
   3.31866     -3.924432
   3.22164     -4.005591
   3.22164     -4.005591
   3.18930     -4.004328
   3.15695     -4.000776
   3.12461     -3.994311
   3.09227     -3.985042
   3.05993     -3.972768
   3.02758     -3.957253
   2.99524     -3.938266
   2.96290     -3.915610
   2.93056     -3.889014
   2.89821     -3.858848
   2.86587     -3.825231
   2.83353     -3.787973
   2.80119     -3.747854
   2.76884     -3.705903
   2.73650     -3.661234
   2.70416     -3.615001
   2.67182     -3.567706
   2.63947     -3.519842
   2.60713     -3.471883
   2.60713     -3.471883
   2.56139     -3.564944
   2.51565     -3.652678
   2.46991     -3.735077
   2.42417     -3.811871
   2.37844     -3.882967
   2.33270     -3.949588
   2.28696     -4.010963
   2.24122     -4.067147
   2.19548     -4.118193
   2.14974     -4.164157
   2.10400     -4.205089
   2.05826     -4.241054
   2.01252     -4.272102
   1.96678     -4.298275
   1.92104     -4.319615
   1.87530     -4.336158
   1.82957     -4.347937
   1.78383     -4.355405
   1.73809     -4.358140
   1.73809     -4.358140
   1.64661     -4.348911
   1.55513     -4.322184
   1.46365     -4.278256
   1.37217     -4.218143
   1.28070     -4.142229
   1.18922     -4.054376
   1.09774     -3.955669
   1.00626     -3.848557
   0.91478     -3.735778
   0.82330     -3.620278
   0.73183     -3.507513
   0.64035     -3.396528
   0.54887     -3.292381
   0.45739     -3.198131
   0.36591     -3.116979
   0.27443     -3.049201
   0.18296     -3.000713
   0.09148     -2.970955
   0.00000     -2.960934
 
# Band-Index    3
   0.00000     -2.960931
   0.09148     -2.952911
   0.18296     -2.929294
   0.27443     -2.889688
   0.36591     -2.836351
   0.45739     -2.765954
   0.54887     -2.683069
   0.64035     -2.587350
   0.73183     -2.569998
   0.82330     -2.606755
   0.91478     -2.593882
   1.00626     -2.496536
   1.09774     -2.270918
   1.18922     -1.882766
   1.28070     -1.741494
   1.37217     -1.661791
   1.46365     -1.637078
   1.55513     -1.618435
   1.64661     -1.606974
   1.73809     -1.603425
   1.73809     -1.603425
   1.78383     -1.605528
   1.82957     -1.613536
   1.87530     -1.628363
   1.92104     -1.658154
   1.96678     -1.767475
   2.01252     -1.888831
   2.05826     -2.017244
   2.10400     -2.149607
   2.14974     -2.283532
   2.19548     -2.417231
   2.24122     -2.549337
   2.28696     -2.678819
   2.33270     -2.804887
   2.37844     -2.926972
   2.42417     -3.046619
   2.46991     -3.161405
   2.51565     -3.270016
   2.56139     -3.373547
   2.60713     -3.471878
   2.60713     -3.471878
   2.63947     -3.423315
   2.67182     -3.373464
   2.70416     -3.322559
   2.73650     -3.270856
   2.76884     -3.218644
   2.80119     -3.164868
   2.83353     -3.112844
   2.86587     -3.061386
   2.89821     -3.010163
   2.93056     -2.961328
   2.96290     -2.914636
   2.99524     -2.870674
   3.02758     -2.830190
   3.05993     -2.793950
   3.09227     -2.762753
   3.12461     -2.737404
   3.15695     -2.718643
   3.18930     -2.706088
   3.22164     -2.702214
   3.22164     -2.702214
   3.31866     -2.904344
   3.41569     -3.075069
   3.51272     -3.216896
   3.60975     -3.326679
   3.70677     -3.406320
   3.80380     -3.311768
   3.90083     -3.186595
   3.99786     -3.073357
   4.09488     -2.975745
   4.19191     -2.894913
   4.28894     -2.835035
   4.38597     -2.799837
   4.48299     -2.792146
   4.58002     -2.810521
   4.67705     -2.857528
   4.77408     -2.901919
   4.87110     -2.934422
   4.96813     -2.954272
   5.06516     -2.960931
   5.06516     -2.960931
   5.14438     -2.955994
   5.22360     -2.941600
   5.30282     -2.919063
   5.38205     -2.891192
   5.46127     -2.860391
   5.54049     -2.831727
   5.61971     -2.812080
   5.69894     -2.802058
   5.77816     -2.804854
   5.85738     -2.818392
   5.93660     -2.841233
   6.01583     -2.868860
   6.09505     -2.898191
   6.17427     -2.926713
   6.25350     -2.952451
   6.33272     -2.973943
   6.41194     -2.990015
   6.49116     -2.999747
   6.57039     -3.003125
 
# Band-Index    4
   6.57039     -1.575987
   6.49116     -1.583705
   6.41194     -1.608205
   6.33272     -1.852457
   6.25350     -2.275696
   6.17427     -2.634986
   6.09505     -2.898191
   6.01583     -2.868860
   5.93660     -2.841233
   5.85738     -2.818392
   5.77816     -2.804854
   5.69894     -2.802058
   5.61971     -2.812080
   5.54049     -2.831727
   5.46127     -2.860391
   5.38205     -2.891192
   5.30282     -2.919063
   5.22360     -2.941600
   5.14438     -2.955994
   5.06516     -2.960931
   5.06516     -2.960931
   4.96813     -2.952004
   4.87110     -2.926479
   4.77408     -2.889668
   4.67705     -2.847716
   4.58002     -2.801516
   4.48299     -2.735434
   4.38597     -2.660447
   4.28894     -2.577976
   4.19191     -2.489577
   4.09488     -2.489296
   3.99786     -2.497289
   3.90083     -2.490516
   3.80380     -2.467328
   3.70677     -2.426941
   3.60975     -2.369883
   3.51272     -2.298310
   3.41569     -2.212154
   3.31866     -2.118178
   3.22164     -2.018299
   3.22164     -2.018299
   3.18930     -2.019362
   3.15695     -2.022746
   3.12461     -2.027948
   3.09227     -2.035067
   3.05993     -2.043943
   3.02758     -2.054372
   2.99524     -2.066123
   2.96290     -2.078922
   2.93056     -2.092306
   2.89821     -2.106269
   2.86587     -2.121911
   2.83353     -2.135564
   2.80119     -2.148785
   2.76884     -2.162186
   2.73650     -2.172980
   2.70416     -2.181937
   2.67182     -2.188701
   2.63947     -2.192953
   2.60713     -2.194421
   2.60713     -2.194421
   2.56139     -2.188550
   2.51565     -2.171362
   2.46991     -2.144058
   2.42417     -2.106923
   2.37844     -2.064878
   2.33270     -2.018756
   2.28696     -1.970175
   2.24122     -1.920822
   2.19548     -1.872159
   2.14974     -1.825398
   2.10400     -1.781523
   2.05826     -1.741314
   2.01252     -1.705401
   1.96678     -1.674274
   1.92104     -1.648821
   1.87530     -1.563825
   1.82957     -1.490725
   1.78383     -1.444293
   1.73809     -1.429794
   1.73809     -1.429794
   1.64661     -1.442523
   1.55513     -1.484059
   1.46365     -1.550267
   1.37217     -1.636955
   1.28070     -1.741493
   1.18922     -1.858971
   1.09774     -1.983713
   1.00626     -2.111717
   0.91478     -2.239021
   0.82330     -2.362174
   0.73183     -2.480287
   0.64035     -2.587348
   0.54887     -2.683067
   0.45739     -2.765952
   0.36591     -2.836349
   0.27443     -2.889686
   0.18296     -2.929292
   0.09148     -2.952909
   0.00000     -2.960931
 
# Band-Index    5
   0.00000     -2.148960
   0.09148     -2.157845
   0.18296     -2.187099
   0.27443     -2.230855
   0.36591     -2.288909
   0.45739     -2.357056
   0.54887     -2.432400
   0.64035     -2.506770
   0.73183     -2.480285
   0.82330     -2.362172
   0.91478     -2.239019
   1.00626     -2.111716
   1.09774     -1.983712
   1.18922     -1.858970
   1.28070     -1.689494
   1.37217     -1.636954
   1.46365     -1.550267
   1.55513     -1.484059
   1.64661     -1.442523
   1.73809     -1.429794
   1.73809     -1.429794
   1.78383     -1.429637
   1.82957     -1.428088
   1.87530     -1.428157
   1.92104     -1.428207
   1.96678     -1.428239
   2.01252     -1.428255
   2.05826     -1.428252
   2.10400     -1.428231
   2.14974     -1.428198
   2.19548     -1.428152
   2.24122     -1.428096
   2.28696     -1.428028
   2.33270     -1.427946
   2.37844     -1.427854
   2.42417     -1.428165
   2.46991     -1.428181
   2.51565     -1.428167
   2.56139     -1.428160
   2.60713     -1.428156
   2.60713     -1.428156
   2.63947     -1.429109
   2.67182     -1.431970
   2.70416     -1.436738
   2.73650     -1.443387
   2.76884     -1.451870
   2.80119     -1.461714
   2.83353     -1.473605
   2.86587     -1.486976
   2.89821     -1.499910
   2.93056     -1.515699
   2.96290     -1.533209
   2.99524     -1.549946
   3.02758     -1.566386
   3.05993     -1.581945
   3.09227     -1.595976
   3.12461     -1.607813
   3.15695     -1.616831
   3.18930     -1.622407
   3.22164     -1.624325
   3.22164     -1.624325
   3.31866     -1.688974
   3.41569     -1.761028
   3.51272     -1.840552
   3.60975     -1.925561
   3.70677     -2.015410
   3.80380     -2.108792
   3.90083     -2.204282
   3.99786     -2.300360
   4.09488     -2.396872
   4.19191     -2.466491
   4.28894     -2.432389
   4.38597     -2.390019
   4.48299     -2.342811
   4.58002     -2.294347
   4.67705     -2.248863
   4.77408     -2.207016
   4.87110     -2.174231
   4.96813     -2.155418
   5.06516     -2.148960
   5.06516     -2.148960
   5.14438     -2.150903
   5.22360     -2.156321
   5.30282     -2.165202
   5.38205     -2.175537
   5.46127     -2.180877
   5.54049     -2.179408
   5.61971     -2.166862
   5.69894     -2.138399
   5.77816     -2.093950
   5.85738     -2.034631
   5.93660     -1.967380
   6.01583     -1.895537
   6.09505     -1.823643
   6.17427     -1.755699
   6.25350     -1.695096
   6.33272     -1.645741
   6.41194     -1.608205
   6.49116     -1.583705
   6.57039     -1.575987
 
# Band-Index    6
   6.57039     -0.954378
   6.49116     -1.087194
   6.41194     -1.424986
   6.33272     -1.645741
   6.25350     -1.695096
   6.17427     -1.755699
   6.09505     -1.823643
   6.01583     -1.895537
   5.93660     -1.967380
   5.85738     -2.034631
   5.77816     -2.093950
   5.69894     -2.138399
   5.61971     -2.166862
   5.54049     -2.179408
   5.46127     -2.180877
   5.38205     -2.175537
   5.30282     -2.165202
   5.22360     -2.156321
   5.14438     -2.150903
   5.06516     -2.148960
   5.06516     -2.148960
   4.96813     -2.148306
   4.87110     -2.145386
   4.77408     -2.138193
   4.67705     -2.119760
   4.58002     -2.079857
   4.48299     -2.009722
   4.38597     -1.902075
   4.28894     -1.752145
   4.19191     -1.558253
   4.09488     -1.313295
   3.99786     -0.999850
   3.90083     -0.592226
   3.80380     -0.063229
   3.70677      0.607737
   3.60975      1.421441
   3.51272      2.364571
   3.41569      3.418896
   3.31866      4.564713
   3.22164      4.381536
   3.22164      4.381536
   3.18930      4.387111
   3.15695      4.403812
   3.12461      4.431607
   3.09227      4.470413
   3.05993      4.520122
   3.02758      4.580603
   2.99524      4.651695
   2.96290      4.733218
   2.93056      4.824975
   2.89821      4.926747
   2.86587      5.038272
   2.83353      5.159383
   2.80119      5.289805
   2.76884      5.429278
   2.73650      5.577582
   2.70416      5.734463
   2.67182      5.899685
   2.63947      6.073018
   2.60713      6.254205
   2.60713      6.254205
   2.56139      5.888014
   2.51565      5.529923
   2.46991      5.180293
   2.42417      4.839509
   2.37844      4.507943
   2.33270      4.186086
   2.28696      3.874532
   2.24122      3.573994
   2.19548      3.285363
   2.14974      3.009768
   2.10400      2.748661
   2.05826      2.503944
   2.01252      2.278074
   1.96678      2.074222
   1.92104      1.896355
   1.87530      1.749408
   1.82957      1.638761
   1.78383      1.569690
   1.73809      1.546168
   1.73809      1.546168
   1.64661      1.324930
   1.55513      0.769447
   1.46365      0.063229
   1.37217     -0.665382
   1.28070     -1.333940
   1.18922     -1.725924
   1.09774     -1.766260
   1.00626     -1.809404
   0.91478     -1.854163
   0.82330     -1.899303
   0.73183     -1.944964
   0.64035     -1.987511
   0.54887     -2.026929
   0.45739     -2.062172
   0.36591     -2.092331
   0.27443     -2.116628
   0.18296     -2.134437
   0.09148     -2.145306
   0.00000     -2.148960
 
# Band-Index    7
   0.00000     22.650593
   0.09148     22.525354
   0.18296     22.197431
   0.27443     21.758043
   0.36591     21.275971
   0.45739     20.796840
   0.54887     20.135279
   0.64035     19.226454
   0.73183     18.359073
   0.82330     17.538651
   0.91478     16.770379
   1.00626     16.059643
   1.09774     14.681857
   1.18922     13.216764
   1.28070     11.804860
   1.37217     10.471072
   1.46365      9.250264
   1.55513      8.204097
   1.64661      7.448941
   1.73809      7.161762
   1.73809      7.161762
   1.78383      7.164787
   1.82957      7.173892
   1.87530      7.189163
   1.92104      7.210751
   1.96678      7.238861
   2.01252      7.273753
   2.05826      7.315736
   2.10400      7.365165
   2.14974      7.422433
   2.19548      7.487957
   2.24122      7.562163
   2.28696      7.645448
   2.33270      7.738112
   2.37844      7.840251
   2.42417      7.793945
   2.46991      7.398463
   2.51565      7.009779
   2.56139      6.628262
   2.60713      6.254271
   2.60713      6.254271
   2.63947      6.403533
   2.67182      6.482535
   2.70416      6.503008
   2.73650      6.482365
   2.76884      6.436033
   2.80119      6.375089
   2.83353      6.306862
   2.86587      6.236154
   2.89821      6.166164
   2.93056      6.099022
   2.96290      6.036269
   2.99524      5.979024
   3.02758      5.928104
   3.05993      5.884130
   3.09227      5.847577
   3.12461      5.818803
   3.15695      5.798071
   3.18930      5.785563
   3.22164      5.781382
   3.22164      5.781382
   3.31866      5.111795
   3.41569      5.889350
   3.51272      6.711721
   3.60975      7.577374
   3.70677      8.485391
   3.80380      9.435152
   3.90083     10.426170
   3.99786     11.458131
   4.09488     12.530579
   4.19191     13.642766
   4.28894     14.793513
   4.38597     15.980443
   4.48299     17.199045
   4.58002     18.440379
   4.67705     19.683491
   4.77408     20.878860
   4.87110     21.892762
   4.96813     22.489139
   5.06516     22.650593
   5.06516     22.650593
   5.14438     22.542068
   5.22360     22.085731
   5.30282     21.122534
   5.38205     19.865860
   5.46127     18.517827
   5.54049     17.149701
   5.61971     15.789473
   5.69894     14.450054
   5.77816     13.138949
   5.85738     11.861667
   5.93660     10.623160
   6.01583      9.428853
   6.09505      8.285606
   6.17427      7.203102
   6.25350      6.196564
   6.33272      5.291792
   6.41194      4.534938
   6.49116      4.005702
   6.57039      3.810012
 
# Band-Index    8
   6.57039     21.136720
   6.49116     21.156289
   6.41194     21.214390
   6.33272     21.309645
   6.25350     21.439367
   6.17427     21.599412
   6.09505     21.784676
   6.01583     21.988526
   5.93660     22.202939
   5.85738     22.418730
   5.77816     22.625711
   5.69894     22.815532
   5.61971     22.981274
   5.54049     23.124845
   5.46127     23.245527
   5.38205     23.369145
   5.30282     23.560065
   5.22360     23.990471
   5.14438     24.770624
   5.06516     25.287747
   5.06516     25.287747
   4.96813     24.643513
   4.87110     23.392587
   4.77408     22.011471
   4.67705     20.619621
   4.58002     19.256255
   4.48299     17.939448
   4.38597     16.680286
   4.28894     15.486543
   4.19191     14.364788
   4.09488     13.320863
   3.99786     12.360106
   3.90083     11.487129
   3.80380     10.705345
   3.70677     10.016567
   3.60975      9.420442
   3.51272      8.914221
   3.41569      8.493176
   3.31866      8.151297
   3.22164      7.885355
   3.22164      7.885355
   3.18930      7.887067
   3.15695      7.892204
   3.12461      7.900799
   3.09227      7.912873
   3.05993      7.928466
   3.02758      7.947620
   2.99524      7.970384
   2.96290      7.996804
   2.93056      8.026908
   2.89821      8.060685
   2.86587      8.098063
   2.83353      8.138838
   2.80119      8.182562
   2.76884      8.228289
   2.73650      8.274089
   2.70416      8.315889
   2.67182      8.345783
   2.63947      8.354514
   2.60713      8.350556
   2.60713      8.350556
   2.56139      8.299943
   2.51565      8.191524
   2.46991      8.070182
   2.42417      7.951458
   2.37844      8.195801
   2.33270      8.603510
   2.28696      9.016420
   2.24122      9.433664
   2.19548      9.854126
   2.14974     10.276272
   2.10400     10.697933
   2.05826     11.116009
   2.01252     11.525954
   1.96678     11.920957
   1.92104     12.290831
   1.87530     12.620313
   1.82957     12.887674
   1.78383     13.065462
   1.73809     13.128362
   1.73809     13.128362
   1.64661     13.178317
   1.55513     13.326595
   1.46365     13.570788
   1.37217     13.906928
   1.28070     14.329800
   1.18922     14.833436
   1.09774     15.412057
   1.00626     16.059665
   0.91478     16.770401
   0.82330     17.538674
